#  E (eV)   dos(E)     Int dos(E) EFermi =    6.070 eV
  -6.234  0.5024E-06  0.2512E-07
  -6.184  0.4734E-05  0.2618E-06
  -6.134  0.3473E-04  0.1998E-05
  -6.084  0.1992E-03  0.1196E-04
  -6.034  0.8990E-03  0.5691E-04
  -5.984  0.3217E-02  0.2177E-03
  -5.934  0.9225E-02  0.6790E-03
  -5.884  0.2150E-01  0.1754E-02
  -5.834  0.4151E-01  0.3830E-02
  -5.784  0.6800E-01  0.7230E-02
  -5.734  0.9736E-01  0.1210E-01
  -5.684  0.1257E+00  0.1838E-01
  -5.634  0.1508E+00  0.2592E-01
  -5.584  0.1725E+00  0.3455E-01
  -5.534  0.1921E+00  0.4415E-01
  -5.484  0.2099E+00  0.5465E-01
  -5.434  0.2254E+00  0.6592E-01
  -5.384  0.2394E+00  0.7789E-01
  -5.334  0.2547E+00  0.9063E-01
  -5.284  0.2709E+00  0.1042E+00
  -5.234  0.2839E+00  0.1184E+00
  -5.184  0.2930E+00  0.1330E+00
  -5.134  0.3037E+00  0.1482E+00
  -5.084  0.3201E+00  0.1642E+00
  -5.034  0.3377E+00  0.1811E+00
  -4.984  0.3487E+00  0.1985E+00
  -4.934  0.3524E+00  0.2161E+00
  -4.884  0.3579E+00  0.2340E+00
  -4.834  0.3741E+00  0.2527E+00
  -4.784  0.3972E+00  0.2726E+00
  -4.734  0.4142E+00  0.2933E+00
  -4.684  0.4175E+00  0.3142E+00
  -4.634  0.4143E+00  0.3349E+00
  -4.584  0.4197E+00  0.3559E+00
  -4.534  0.4415E+00  0.3780E+00
  -4.484  0.4707E+00  0.4015E+00
  -4.434  0.4895E+00  0.4260E+00
  -4.384  0.4915E+00  0.4506E+00
  -4.334  0.4866E+00  0.4749E+00
  -4.284  0.4889E+00  0.4993E+00
  -4.234  0.5052E+00  0.5246E+00
  -4.184  0.5342E+00  0.5513E+00
  -4.134  0.5660E+00  0.5796E+00
  -4.084  0.5865E+00  0.6089E+00
  -4.034  0.5892E+00  0.6384E+00
  -3.984  0.5824E+00  0.6675E+00
  -3.934  0.5830E+00  0.6967E+00
  -3.884  0.6058E+00  0.7269E+00
  -3.834  0.6524E+00  0.7596E+00
  -3.784  0.7073E+00  0.7949E+00
  -3.734  0.7480E+00  0.8323E+00
  -3.684  0.7641E+00  0.8705E+00
  -3.634  0.7660E+00  0.9088E+00
  -3.584  0.7781E+00  0.9478E+00
  -3.534  0.8198E+00  0.9887E+00
  -3.484  0.8809E+00  0.1033E+01
  -3.434  0.9209E+00  0.1079E+01
  -3.384  0.9077E+00  0.1124E+01
  -3.334  0.8519E+00  0.1167E+01
  -3.284  0.7943E+00  0.1207E+01
  -3.234  0.7680E+00  0.1245E+01
  -3.184  0.7778E+00  0.1284E+01
  -3.134  0.8001E+00  0.1324E+01
  -3.084  0.8006E+00  0.1364E+01
  -3.034  0.7656E+00  0.1402E+01
  -2.984  0.7145E+00  0.1438E+01
  -2.934  0.6760E+00  0.1472E+01
  -2.884  0.6629E+00  0.1505E+01
  -2.834  0.6680E+00  0.1538E+01
  -2.784  0.6725E+00  0.1572E+01
  -2.734  0.6583E+00  0.1605E+01
  -2.684  0.6227E+00  0.1636E+01
  -2.634  0.5807E+00  0.1665E+01
  -2.584  0.5518E+00  0.1693E+01
  -2.534  0.5439E+00  0.1720E+01
  -2.484  0.5468E+00  0.1747E+01
  -2.434  0.5404E+00  0.1774E+01
  -2.384  0.5131E+00  0.1800E+01
  -2.334  0.4717E+00  0.1823E+01
  -2.284  0.4332E+00  0.1845E+01
  -2.234  0.4097E+00  0.1865E+01
  -2.184  0.4004E+00  0.1885E+01
  -2.134  0.3935E+00  0.1905E+01
  -2.084  0.3754E+00  0.1924E+01
  -2.034  0.3409E+00  0.1941E+01
  -1.984  0.2935E+00  0.1956E+01
  -1.934  0.2404E+00  0.1968E+01
  -1.884  0.1922E+00  0.1977E+01
  -1.834  0.1596E+00  0.1985E+01
  -1.784  0.1462E+00  0.1993E+01
  -1.734  0.1443E+00  0.2000E+01
  -1.684  0.1416E+00  0.2007E+01
  -1.634  0.1312E+00  0.2013E+01
  -1.584  0.1200E+00  0.2019E+01
  -1.534  0.1262E+00  0.2026E+01
  -1.484  0.1671E+00  0.2034E+01
  -1.434  0.2407E+00  0.2046E+01
  -1.384  0.3180E+00  0.2062E+01
  -1.334  0.3612E+00  0.2080E+01
  -1.284  0.3580E+00  0.2098E+01
  -1.234  0.3344E+00  0.2115E+01
  -1.184  0.3345E+00  0.2131E+01
  -1.134  0.3873E+00  0.2151E+01
  -1.084  0.4857E+00  0.2175E+01
  -1.034  0.5915E+00  0.2205E+01
  -0.984  0.6715E+00  0.2238E+01
  -0.934  0.7396E+00  0.2275E+01
  -0.884  0.8483E+00  0.2318E+01
  -0.834  0.1027E+01  0.2369E+01
  -0.784  0.1233E+01  0.2431E+01
  -0.734  0.1376E+01  0.2499E+01
  -0.684  0.1391E+01  0.2569E+01
  -0.634  0.1285E+01  0.2633E+01
  -0.584  0.1120E+01  0.2689E+01
  -0.534  0.9689E+00  0.2738E+01
  -0.484  0.8723E+00  0.2781E+01
  -0.434  0.8249E+00  0.2823E+01
  -0.384  0.7951E+00  0.2862E+01
  -0.334  0.7589E+00  0.2900E+01
  -0.284  0.7163E+00  0.2936E+01
  -0.234  0.6778E+00  0.2970E+01
  -0.184  0.6444E+00  0.3002E+01
  -0.134  0.6089E+00  0.3033E+01
  -0.084  0.5751E+00  0.3061E+01
  -0.034  0.5583E+00  0.3089E+01
   0.016  0.5586E+00  0.3117E+01
   0.066  0.5532E+00  0.3145E+01
   0.116  0.5260E+00  0.3171E+01
   0.166  0.4890E+00  0.3196E+01
   0.216  0.4632E+00  0.3219E+01
   0.266  0.4519E+00  0.3241E+01
   0.316  0.4460E+00  0.3264E+01
   0.366  0.4427E+00  0.3286E+01
   0.416  0.4418E+00  0.3308E+01
   0.466  0.4325E+00  0.3329E+01
   0.516  0.4052E+00  0.3350E+01
   0.566  0.3727E+00  0.3368E+01
   0.616  0.3585E+00  0.3386E+01
   0.666  0.3635E+00  0.3404E+01
   0.716  0.3631E+00  0.3423E+01
   0.766  0.3432E+00  0.3440E+01
   0.816  0.3219E+00  0.3456E+01
   0.866  0.3240E+00  0.3472E+01
   0.916  0.3444E+00  0.3489E+01
   0.966  0.3515E+00  0.3507E+01
   1.016  0.3242E+00  0.3523E+01
   1.066  0.2764E+00  0.3537E+01
   1.116  0.2428E+00  0.3549E+01
   1.166  0.2424E+00  0.3561E+01
   1.216  0.2622E+00  0.3574E+01
   1.266  0.2758E+00  0.3588E+01
   1.316  0.2748E+00  0.3602E+01
   1.366  0.2699E+00  0.3615E+01
   1.416  0.2688E+00  0.3629E+01
   1.466  0.2642E+00  0.3642E+01
   1.516  0.2513E+00  0.3655E+01
   1.566  0.2471E+00  0.3667E+01
   1.616  0.2826E+00  0.3681E+01
   1.666  0.3731E+00  0.3700E+01
   1.716  0.5045E+00  0.3725E+01
   1.766  0.6508E+00  0.3757E+01
   1.816  0.7958E+00  0.3797E+01
   1.866  0.9323E+00  0.3844E+01
   1.916  0.1055E+01  0.3897E+01
   1.966  0.1153E+01  0.3954E+01
   2.016  0.1210E+01  0.4015E+01
   2.066  0.1210E+01  0.4075E+01
   2.116  0.1157E+01  0.4133E+01
   2.166  0.1086E+01  0.4187E+01
   2.216  0.1044E+01  0.4240E+01
   2.266  0.1042E+01  0.4292E+01
   2.316  0.1058E+01  0.4345E+01
   2.366  0.1065E+01  0.4398E+01
   2.416  0.1062E+01  0.4451E+01
   2.466  0.1071E+01  0.4505E+01
   2.516  0.1095E+01  0.4559E+01
   2.566  0.1111E+01  0.4615E+01
   2.616  0.1094E+01  0.4670E+01
   2.666  0.1060E+01  0.4723E+01
   2.716  0.1046E+01  0.4775E+01
   2.766  0.1073E+01  0.4829E+01
   2.816  0.1127E+01  0.4885E+01
   2.866  0.1175E+01  0.4944E+01
   2.916  0.1202E+01  0.5004E+01
   2.966  0.1218E+01  0.5065E+01
   3.016  0.1252E+01  0.5127E+01
   3.066  0.1325E+01  0.5193E+01
   3.116  0.1424E+01  0.5265E+01
   3.166  0.1516E+01  0.5341E+01
   3.216  0.1566E+01  0.5419E+01
   3.266  0.1551E+01  0.5496E+01
   3.316  0.1480E+01  0.5570E+01
   3.366  0.1395E+01  0.5640E+01
   3.416  0.1362E+01  0.5708E+01
   3.466  0.1426E+01  0.5780E+01
   3.516  0.1549E+01  0.5857E+01
   3.566  0.1628E+01  0.5938E+01
   3.616  0.1589E+01  0.6018E+01
   3.666  0.1463E+01  0.6091E+01
   3.716  0.1348E+01  0.6158E+01
   3.766  0.1313E+01  0.6224E+01
   3.816  0.1347E+01  0.6291E+01
   3.866  0.1391E+01  0.6361E+01
   3.916  0.1403E+01  0.6431E+01
   3.966  0.1378E+01  0.6500E+01
   4.016  0.1340E+01  0.6567E+01
   4.066  0.1311E+01  0.6632E+01
   4.116  0.1301E+01  0.6697E+01
   4.166  0.1304E+01  0.6763E+01
   4.216  0.1299E+01  0.6828E+01
   4.266  0.1272E+01  0.6891E+01
   4.316  0.1235E+01  0.6953E+01
   4.366  0.1216E+01  0.7014E+01
   4.416  0.1230E+01  0.7075E+01
   4.466  0.1253E+01  0.7138E+01
   4.516  0.1250E+01  0.7200E+01
   4.566  0.1215E+01  0.7261E+01
   4.616  0.1168E+01  0.7320E+01
   4.666  0.1130E+01  0.7376E+01
   4.716  0.1094E+01  0.7431E+01
   4.766  0.1041E+01  0.7483E+01
   4.816  0.9698E+00  0.7531E+01
   4.866  0.8948E+00  0.7576E+01
   4.916  0.8247E+00  0.7617E+01
   4.966  0.7567E+00  0.7655E+01
   5.016  0.6918E+00  0.7690E+01
   5.066  0.6383E+00  0.7722E+01
   5.116  0.5993E+00  0.7752E+01
   5.166  0.5658E+00  0.7780E+01
   5.216  0.5254E+00  0.7806E+01
   5.266  0.4764E+00  0.7830E+01
   5.316  0.4280E+00  0.7851E+01
   5.366  0.3872E+00  0.7871E+01
   5.416  0.3529E+00  0.7888E+01
   5.466  0.3245E+00  0.7905E+01
   5.516  0.3056E+00  0.7920E+01
   5.566  0.2946E+00  0.7935E+01
   5.616  0.2805E+00  0.7949E+01
   5.666  0.2530E+00  0.7961E+01
   5.716  0.2138E+00  0.7972E+01
   5.766  0.1716E+00  0.7981E+01
   5.816  0.1332E+00  0.7987E+01
   5.866  0.9971E-01  0.7992E+01
   5.916  0.7007E-01  0.7996E+01
   5.966  0.4437E-01  0.7998E+01
   6.016  0.2424E-01  0.7999E+01
   6.066  0.1100E-01  0.8000E+01
   6.116  0.4039E-02  0.8000E+01
   6.166  0.1181E-02  0.8000E+01
   6.216  0.2852E-03  0.8000E+01
   6.266  0.1381E-03  0.8000E+01
   6.316  0.4384E-03  0.8000E+01
   6.366  0.1657E-02  0.8000E+01
   6.416  0.5158E-02  0.8000E+01
   6.466  0.1334E-01  0.8001E+01
   6.516  0.2926E-01  0.8002E+01
   6.566  0.5521E-01  0.8005E+01
   6.616  0.9064E-01  0.8010E+01
   6.666  0.1318E+00  0.8016E+01
   6.716  0.1748E+00  0.8025E+01
   6.766  0.2184E+00  0.8036E+01
   6.816  0.2628E+00  0.8049E+01
   6.866  0.3074E+00  0.8065E+01
   6.916  0.3515E+00  0.8082E+01
   6.966  0.3943E+00  0.8102E+01
   7.016  0.4327E+00  0.8123E+01
   7.066  0.4618E+00  0.8147E+01
   7.116  0.4792E+00  0.8171E+01
   7.166  0.4869E+00  0.8195E+01
   7.216  0.4909E+00  0.8219E+01
   7.266  0.5010E+00  0.8244E+01
   7.316  0.5303E+00  0.8271E+01
   7.366  0.5870E+00  0.8300E+01
   7.416  0.6615E+00  0.8333E+01
   7.466  0.7325E+00  0.8370E+01
   7.516  0.7903E+00  0.8410E+01
   7.566  0.8459E+00  0.8452E+01
   7.616  0.9113E+00  0.8497E+01
   7.666  0.9784E+00  0.8546E+01
   7.716  0.1023E+01  0.8597E+01
   7.766  0.1031E+01  0.8649E+01
   7.816  0.1018E+01  0.8700E+01
   7.866  0.1027E+01  0.8751E+01
   7.916  0.1100E+01  0.8806E+01
   7.966  0.1234E+01  0.8868E+01
   8.016  0.1376E+01  0.8937E+01
   8.066  0.1472E+01  0.9010E+01
   8.116  0.1512E+01  0.9086E+01
   8.166  0.1535E+01  0.9163E+01
   8.216  0.1576E+01  0.9242E+01
   8.266  0.1626E+01  0.9323E+01
   8.316  0.1640E+01  0.9405E+01
   8.366  0.1597E+01  0.9485E+01
   8.416  0.1517E+01  0.9561E+01
   8.466  0.1443E+01  0.9633E+01
   8.516  0.1394E+01  0.9702E+01
   8.566  0.1359E+01  0.9770E+01
   8.616  0.1316E+01  0.9836E+01
   8.666  0.1257E+01  0.9899E+01
   8.716  0.1185E+01  0.9958E+01
   8.766  0.1107E+01  0.1001E+02
   8.816  0.1026E+01  0.1006E+02
   8.866  0.9572E+00  0.1011E+02
   8.916  0.9333E+00  0.1016E+02
   8.966  0.9839E+00  0.1021E+02
   9.016  0.1117E+01  0.1026E+02
   9.066  0.1323E+01  0.1033E+02
   9.116  0.1588E+01  0.1041E+02
   9.166  0.1881E+01  0.1050E+02
   9.216  0.2132E+01  0.1061E+02
   9.266  0.2249E+01  0.1072E+02
   9.316  0.2199E+01  0.1083E+02
   9.366  0.2042E+01  0.1094E+02
   9.416  0.1883E+01  0.1103E+02
   9.466  0.1785E+01  0.1112E+02
   9.516  0.1742E+01  0.1121E+02
   9.566  0.1715E+01  0.1129E+02
   9.616  0.1681E+01  0.1138E+02
   9.666  0.1638E+01  0.1146E+02
   9.716  0.1589E+01  0.1154E+02
   9.766  0.1528E+01  0.1161E+02
   9.816  0.1446E+01  0.1169E+02
   9.866  0.1342E+01  0.1175E+02
   9.916  0.1238E+01  0.1181E+02
   9.966  0.1180E+01  0.1187E+02
  10.016  0.1202E+01  0.1193E+02
  10.066  0.1293E+01  0.1200E+02
  10.116  0.1398E+01  0.1207E+02
  10.166  0.1452E+01  0.1214E+02
  10.216  0.1426E+01  0.1221E+02
  10.266  0.1347E+01  0.1228E+02
  10.316  0.1276E+01  0.1234E+02
  10.366  0.1253E+01  0.1241E+02
  10.416  0.1272E+01  0.1247E+02
  10.466  0.1294E+01  0.1253E+02
  10.516  0.1291E+01  0.1260E+02
  10.566  0.1267E+01  0.1266E+02
  10.616  0.1246E+01  0.1272E+02
  10.666  0.1239E+01  0.1279E+02
  10.716  0.1243E+01  0.1285E+02
  10.766  0.1254E+01  0.1291E+02
  10.816  0.1274E+01  0.1297E+02
  10.866  0.1306E+01  0.1304E+02
  10.916  0.1343E+01  0.1311E+02
  10.966  0.1369E+01  0.1318E+02
  11.016  0.1369E+01  0.1324E+02
  11.066  0.1327E+01  0.1331E+02
  11.116  0.1244E+01  0.1337E+02
  11.166  0.1147E+01  0.1343E+02
  11.216  0.1074E+01  0.1348E+02
  11.266  0.1041E+01  0.1354E+02
  11.316  0.1037E+01  0.1359E+02
  11.366  0.1036E+01  0.1364E+02
  11.416  0.1033E+01  0.1369E+02
  11.466  0.1055E+01  0.1374E+02
  11.516  0.1121E+01  0.1380E+02
  11.566  0.1205E+01  0.1386E+02
  11.616  0.1256E+01  0.1392E+02
  11.666  0.1266E+01  0.1399E+02
  11.716  0.1264E+01  0.1405E+02
  11.766  0.1271E+01  0.1411E+02
  11.816  0.1269E+01  0.1418E+02
  11.866  0.1229E+01  0.1424E+02
  11.916  0.1141E+01  0.1429E+02
  11.966  0.1019E+01  0.1435E+02
  12.016  0.8903E+00  0.1439E+02
  12.066  0.7891E+00  0.1443E+02
  12.116  0.7415E+00  0.1447E+02
  12.166  0.7552E+00  0.1450E+02
  12.216  0.8177E+00  0.1455E+02
  12.266  0.9051E+00  0.1459E+02
  12.316  0.9988E+00  0.1464E+02
  12.366  0.1096E+01  0.1470E+02
  12.416  0.1204E+01  0.1476E+02
  12.466  0.1320E+01  0.1482E+02
  12.516  0.1429E+01  0.1489E+02
  12.566  0.1518E+01  0.1497E+02
  12.616  0.1588E+01  0.1505E+02
  12.666  0.1634E+01  0.1513E+02
  12.716  0.1626E+01  0.1521E+02
  12.766  0.1527E+01  0.1529E+02
  12.816  0.1340E+01  0.1535E+02
  12.866  0.1119E+01  0.1541E+02
  12.916  0.9377E+00  0.1546E+02
  12.966  0.8415E+00  0.1550E+02
  13.016  0.8206E+00  0.1554E+02
  13.066  0.8317E+00  0.1558E+02
  13.116  0.8388E+00  0.1562E+02
  13.166  0.8379E+00  0.1567E+02
  13.216  0.8528E+00  0.1571E+02
  13.266  0.9162E+00  0.1575E+02
  13.316  0.1043E+01  0.1581E+02
  13.366  0.1212E+01  0.1587E+02
  13.416  0.1378E+01  0.1594E+02
  13.466  0.1509E+01  0.1601E+02
  13.516  0.1616E+01  0.1609E+02
  13.566  0.1718E+01  0.1618E+02
  13.616  0.1796E+01  0.1627E+02
  13.666  0.1799E+01  0.1636E+02
  13.716  0.1699E+01  0.1644E+02
  13.766  0.1521E+01  0.1652E+02
  13.816  0.1319E+01  0.1659E+02
  13.866  0.1138E+01  0.1664E+02
  13.916  0.9886E+00  0.1669E+02
  13.966  0.8744E+00  0.1674E+02
  14.016  0.8078E+00  0.1678E+02
  14.066  0.8051E+00  0.1682E+02
  14.116  0.8623E+00  0.1686E+02
  14.166  0.9491E+00  0.1691E+02
  14.216  0.1026E+01  0.1696E+02
  14.266  0.1068E+01  0.1701E+02
  14.316  0.1095E+01  0.1707E+02
  14.366  0.1157E+01  0.1712E+02
  14.416  0.1297E+01  0.1719E+02
  14.466  0.1503E+01  0.1726E+02
  14.516  0.1703E+01  0.1735E+02
  14.566  0.1813E+01  0.1744E+02
  14.616  0.1785E+01  0.1753E+02
  14.666  0.1633E+01  0.1761E+02
  14.716  0.1408E+01  0.1768E+02
  14.766  0.1181E+01  0.1774E+02
  14.816  0.1021E+01  0.1779E+02
  14.866  0.9747E+00  0.1784E+02
  14.916  0.1030E+01  0.1789E+02
  14.966  0.1125E+01  0.1795E+02
  15.016  0.1198E+01  0.1801E+02
  15.066  0.1228E+01  0.1807E+02
  15.116  0.1227E+01  0.1813E+02
  15.166  0.1229E+01  0.1819E+02
  15.216  0.1277E+01  0.1826E+02
  15.266  0.1409E+01  0.1833E+02
  15.316  0.1608E+01  0.1841E+02
  15.366  0.1787E+01  0.1850E+02
  15.416  0.1850E+01  0.1859E+02
  15.466  0.1773E+01  0.1868E+02
  15.516  0.1611E+01  0.1876E+02
  15.566  0.1435E+01  0.1883E+02
  15.616  0.1289E+01  0.1889E+02
  15.666  0.1200E+01  0.1895E+02
  15.716  0.1185E+01  0.1901E+02
  15.766  0.1224E+01  0.1907E+02
  15.816  0.1268E+01  0.1914E+02
  15.866  0.1272E+01  0.1920E+02
  15.916  0.1231E+01  0.1926E+02
  15.966  0.1162E+01  0.1932E+02
  16.016  0.1095E+01  0.1938E+02
  16.066  0.1062E+01  0.1943E+02
  16.116  0.1084E+01  0.1948E+02
  16.166  0.1158E+01  0.1954E+02
  16.216  0.1257E+01  0.1960E+02
  16.266  0.1351E+01  0.1967E+02
  16.316  0.1415E+01  0.1974E+02
  16.366  0.1443E+01  0.1981E+02
  16.416  0.1440E+01  0.1989E+02
  16.466  0.1411E+01  0.1996E+02
  16.516  0.1363E+01  0.2002E+02
  16.566  0.1316E+01  0.2009E+02
  16.616  0.1295E+01  0.2016E+02
  16.666  0.1290E+01  0.2022E+02
  16.716  0.1264E+01  0.2028E+02
  16.766  0.1198E+01  0.2034E+02
  16.816  0.1124E+01  0.2040E+02
  16.866  0.1098E+01  0.2045E+02
  16.916  0.1136E+01  0.2051E+02
  16.966  0.1197E+01  0.2057E+02
  17.016  0.1225E+01  0.2063E+02
  17.066  0.1209E+01  0.2069E+02
  17.116  0.1183E+01  0.2075E+02
  17.166  0.1175E+01  0.2081E+02
  17.216  0.1190E+01  0.2087E+02
  17.266  0.1224E+01  0.2093E+02
  17.316  0.1276E+01  0.2099E+02
  17.366  0.1336E+01  0.2106E+02
  17.416  0.1386E+01  0.2113E+02
  17.466  0.1416E+01  0.2120E+02
  17.516  0.1431E+01  0.2127E+02
  17.566  0.1448E+01  0.2135E+02
  17.616  0.1481E+01  0.2142E+02
  17.666  0.1528E+01  0.2150E+02
  17.716  0.1567E+01  0.2157E+02
  17.766  0.1577E+01  0.2165E+02
  17.816  0.1562E+01  0.2173E+02
  17.866  0.1528E+01  0.2181E+02
  17.916  0.1472E+01  0.2188E+02
  17.966  0.1399E+01  0.2195E+02
  18.016  0.1338E+01  0.2202E+02
  18.066  0.1317E+01  0.2208E+02
  18.116  0.1340E+01  0.2215E+02
  18.166  0.1388E+01  0.2222E+02
  18.216  0.1458E+01  0.2229E+02
  18.266  0.1568E+01  0.2237E+02
  18.316  0.1723E+01  0.2246E+02
  18.366  0.1890E+01  0.2255E+02
  18.416  0.2014E+01  0.2265E+02
  18.466  0.2051E+01  0.2276E+02
  18.516  0.1995E+01  0.2286E+02
  18.566  0.1877E+01  0.2295E+02
  18.616  0.1742E+01  0.2304E+02
  18.666  0.1615E+01  0.2312E+02
  18.716  0.1498E+01  0.2319E+02
  18.766  0.1391E+01  0.2326E+02
  18.816  0.1306E+01  0.2333E+02
  18.866  0.1255E+01  0.2339E+02
  18.916  0.1242E+01  0.2345E+02
  18.966  0.1263E+01  0.2351E+02
  19.016  0.1308E+01  0.2358E+02
  19.066  0.1361E+01  0.2365E+02
  19.116  0.1404E+01  0.2372E+02
  19.166  0.1425E+01  0.2379E+02
  19.216  0.1425E+01  0.2386E+02
  19.266  0.1427E+01  0.2393E+02
  19.316  0.1476E+01  0.2401E+02
  19.366  0.1603E+01  0.2409E+02
  19.416  0.1794E+01  0.2418E+02
  19.466  0.1989E+01  0.2428E+02
  19.516  0.2135E+01  0.2438E+02
  19.566  0.2194E+01  0.2449E+02
  19.616  0.2151E+01  0.2460E+02
  19.666  0.2026E+01  0.2470E+02
  19.716  0.1870E+01  0.2479E+02
  19.766  0.1730E+01  0.2488E+02
  19.816  0.1623E+01  0.2496E+02
  19.866  0.1543E+01  0.2504E+02
  19.916  0.1486E+01  0.2511E+02
  19.966  0.1467E+01  0.2519E+02
  20.016  0.1502E+01  0.2526E+02
  20.066  0.1581E+01  0.2534E+02
  20.116  0.1650E+01  0.2542E+02
  20.166  0.1644E+01  0.2551E+02
  20.216  0.1550E+01  0.2558E+02
  20.266  0.1421E+01  0.2565E+02
  20.316  0.1321E+01  0.2572E+02
  20.366  0.1270E+01  0.2578E+02
  20.416  0.1241E+01  0.2585E+02
  20.466  0.1213E+01  0.2591E+02
  20.516  0.1197E+01  0.2597E+02
  20.566  0.1213E+01  0.2603E+02
  20.616  0.1274E+01  0.2609E+02
  20.666  0.1382E+01  0.2616E+02
  20.716  0.1528E+01  0.2624E+02
  20.766  0.1680E+01  0.2632E+02
  20.816  0.1786E+01  0.2641E+02
  20.866  0.1811E+01  0.2650E+02
  20.916  0.1776E+01  0.2659E+02
  20.966  0.1749E+01  0.2668E+02
  21.016  0.1762E+01  0.2676E+02
  21.066  0.1762E+01  0.2685E+02
  21.116  0.1676E+01  0.2694E+02
  21.166  0.1512E+01  0.2701E+02
  21.216  0.1363E+01  0.2708E+02
  21.266  0.1316E+01  0.2715E+02
  21.316  0.1376E+01  0.2721E+02
  21.366  0.1479E+01  0.2729E+02
  21.416  0.1551E+01  0.2737E+02
  21.466  0.1557E+01  0.2744E+02
  21.516  0.1499E+01  0.2752E+02
  21.566  0.1409E+01  0.2759E+02
  21.616  0.1327E+01  0.2766E+02
  21.666  0.1277E+01  0.2772E+02
  21.716  0.1254E+01  0.2778E+02
  21.766  0.1245E+01  0.2784E+02
  21.816  0.1238E+01  0.2791E+02
  21.866  0.1216E+01  0.2797E+02
  21.916  0.1177E+01  0.2803E+02
  21.966  0.1149E+01  0.2808E+02
  22.016  0.1174E+01  0.2814E+02
  22.066  0.1275E+01  0.2821E+02
  22.116  0.1436E+01  0.2828E+02
  22.166  0.1614E+01  0.2836E+02
  22.216  0.1749E+01  0.2845E+02
  22.266  0.1794E+01  0.2854E+02
  22.316  0.1743E+01  0.2862E+02
  22.366  0.1649E+01  0.2870E+02
  22.416  0.1576E+01  0.2878E+02
  22.466  0.1552E+01  0.2886E+02
  22.516  0.1564E+01  0.2894E+02
  22.566  0.1592E+01  0.2902E+02
  22.616  0.1628E+01  0.2910E+02
  22.666  0.1655E+01  0.2918E+02
  22.716  0.1640E+01  0.2927E+02
  22.766  0.1572E+01  0.2934E+02
  22.816  0.1484E+01  0.2942E+02
  22.866  0.1418E+01  0.2949E+02
  22.916  0.1394E+01  0.2956E+02
  22.966  0.1409E+01  0.2963E+02
  23.016  0.1457E+01  0.2970E+02
  23.066  0.1523E+01  0.2978E+02
  23.116  0.1585E+01  0.2986E+02
  23.166  0.1622E+01  0.2994E+02
  23.216  0.1632E+01  0.3002E+02
  23.266  0.1642E+01  0.3010E+02
  23.316  0.1694E+01  0.3019E+02
  23.366  0.1792E+01  0.3028E+02
  23.416  0.1888E+01  0.3037E+02
  23.466  0.1928E+01  0.3047E+02
  23.516  0.1913E+01  0.3056E+02
  23.566  0.1887E+01  0.3066E+02
  23.616  0.1881E+01  0.3075E+02
  23.666  0.1880E+01  0.3085E+02
  23.716  0.1857E+01  0.3094E+02
  23.766  0.1813E+01  0.3103E+02
  23.816  0.1783E+01  0.3112E+02
  23.866  0.1782E+01  0.3121E+02
  23.916  0.1788E+01  0.3130E+02
  23.966  0.1764E+01  0.3138E+02
  24.016  0.1708E+01  0.3147E+02
  24.066  0.1645E+01  0.3155E+02
  24.116  0.1602E+01  0.3163E+02
  24.166  0.1595E+01  0.3171E+02
  24.216  0.1638E+01  0.3179E+02
  24.266  0.1739E+01  0.3188E+02
  24.316  0.1869E+01  0.3197E+02
  24.366  0.1980E+01  0.3207E+02
  24.416  0.2044E+01  0.3218E+02
  24.466  0.2069E+01  0.3228E+02
  24.516  0.2067E+01  0.3238E+02
  24.566  0.2045E+01  0.3248E+02
  24.616  0.2007E+01  0.3258E+02
  24.666  0.1957E+01  0.3268E+02
  24.716  0.1913E+01  0.3278E+02
  24.766  0.1898E+01  0.3287E+02
  24.816  0.1917E+01  0.3297E+02
  24.866  0.1939E+01  0.3307E+02
  24.916  0.1940E+01  0.3316E+02
  24.966  0.1937E+01  0.3326E+02
  25.016  0.1958E+01  0.3336E+02
  25.066  0.1990E+01  0.3346E+02
  25.116  0.1984E+01  0.3356E+02
  25.166  0.1912E+01  0.3365E+02
  25.216  0.1810E+01  0.3374E+02
  25.266  0.1736E+01  0.3383E+02
  25.316  0.1710E+01  0.3391E+02
  25.366  0.1698E+01  0.3400E+02
  25.416  0.1650E+01  0.3408E+02
  25.466  0.1544E+01  0.3416E+02
  25.516  0.1398E+01  0.3423E+02
  25.566  0.1267E+01  0.3429E+02
  25.616  0.1207E+01  0.3435E+02
  25.666  0.1244E+01  0.3442E+02
  25.716  0.1355E+01  0.3448E+02
  25.766  0.1486E+01  0.3456E+02
  25.816  0.1596E+01  0.3464E+02
  25.866  0.1677E+01  0.3472E+02
  25.916  0.1740E+01  0.3481E+02
  25.966  0.1773E+01  0.3490E+02
  26.016  0.1746E+01  0.3498E+02
  26.066  0.1657E+01  0.3507E+02
  26.116  0.1555E+01  0.3514E+02
  26.166  0.1512E+01  0.3522E+02
  26.216  0.1562E+01  0.3530E+02
  26.266  0.1670E+01  0.3538E+02
  26.316  0.1759E+01  0.3547E+02
  26.366  0.1774E+01  0.3556E+02
  26.416  0.1724E+01  0.3564E+02
  26.466  0.1674E+01  0.3573E+02
  26.516  0.1679E+01  0.3581E+02
  26.566  0.1741E+01  0.3590E+02
  26.616  0.1824E+01  0.3599E+02
  26.666  0.1888E+01  0.3608E+02
  26.716  0.1907E+01  0.3618E+02
  26.766  0.1880E+01  0.3627E+02
  26.816  0.1842E+01  0.3637E+02
  26.866  0.1839E+01  0.3646E+02
  26.916  0.1887E+01  0.3655E+02
  26.966  0.1961E+01  0.3665E+02
  27.016  0.2014E+01  0.3675E+02
  27.066  0.2018E+01  0.3685E+02
  27.116  0.1977E+01  0.3695E+02
  27.166  0.1928E+01  0.3705E+02
  27.216  0.1900E+01  0.3714E+02
  27.266  0.1887E+01  0.3724E+02
  27.316  0.1855E+01  0.3733E+02
  27.366  0.1793E+01  0.3742E+02
  27.416  0.1744E+01  0.3751E+02
  27.466  0.1751E+01  0.3759E+02
  27.516  0.1795E+01  0.3768E+02
  27.566  0.1810E+01  0.3777E+02
  27.616  0.1755E+01  0.3786E+02
  27.666  0.1668E+01  0.3795E+02
  27.716  0.1624E+01  0.3803E+02
  27.766  0.1644E+01  0.3811E+02
  27.816  0.1681E+01  0.3819E+02
  27.866  0.1690E+01  0.3828E+02
  27.916  0.1679E+01  0.3836E+02
  27.966  0.1679E+01  0.3845E+02
  28.016  0.1690E+01  0.3853E+02
  28.066  0.1695E+01  0.3861E+02
  28.116  0.1703E+01  0.3870E+02
  28.166  0.1747E+01  0.3879E+02
  28.216  0.1843E+01  0.3888E+02
  28.266  0.1960E+01  0.3898E+02
  28.316  0.2029E+01  0.3908E+02
  28.366  0.2009E+01  0.3918E+02
  28.416  0.1933E+01  0.3928E+02
  28.466  0.1871E+01  0.3937E+02
  28.516  0.1848E+01  0.3946E+02
  28.566  0.1829E+01  0.3955E+02
  28.616  0.1778E+01  0.3964E+02
  28.666  0.1709E+01  0.3973E+02
  28.716  0.1653E+01  0.3981E+02
  28.766  0.1615E+01  0.3989E+02
  28.816  0.1572E+01  0.3997E+02
  28.866  0.1516E+01  0.4005E+02
  28.916  0.1474E+01  0.4012E+02
  28.966  0.1483E+01  0.4019E+02
  29.016  0.1549E+01  0.4027E+02
  29.066  0.1636E+01  0.4035E+02
  29.116  0.1701E+01  0.4044E+02
  29.166  0.1725E+01  0.4052E+02
  29.216  0.1720E+01  0.4061E+02
  29.266  0.1701E+01  0.4069E+02
  29.316  0.1661E+01  0.4078E+02
  29.366  0.1588E+01  0.4086E+02
  29.416  0.1501E+01  0.4093E+02
  29.466  0.1442E+01  0.4100E+02
  29.516  0.1435E+01  0.4108E+02
  29.566  0.1462E+01  0.4115E+02
  29.616  0.1492E+01  0.4122E+02
  29.666  0.1509E+01  0.4130E+02
  29.716  0.1512E+01  0.4137E+02
  29.766  0.1502E+01  0.4145E+02
  29.816  0.1487E+01  0.4152E+02
  29.866  0.1478E+01  0.4160E+02
  29.916  0.1483E+01  0.4167E+02
  29.966  0.1503E+01  0.4175E+02
  30.016  0.1527E+01  0.4182E+02
  30.066  0.1532E+01  0.4190E+02
  30.116  0.1497E+01  0.4198E+02
  30.166  0.1431E+01  0.4205E+02
  30.216  0.1363E+01  0.4212E+02
  30.266  0.1315E+01  0.4218E+02
  30.316  0.1290E+01  0.4225E+02
  30.366  0.1284E+01  0.4231E+02
  30.416  0.1301E+01  0.4237E+02
  30.466  0.1353E+01  0.4244E+02
  30.516  0.1458E+01  0.4252E+02
  30.566  0.1613E+01  0.4260E+02
  30.616  0.1775E+01  0.4268E+02
  30.666  0.1869E+01  0.4278E+02
  30.716  0.1843E+01  0.4287E+02
  30.766  0.1709E+01  0.4296E+02
  30.816  0.1546E+01  0.4303E+02
  30.866  0.1440E+01  0.4310E+02
  30.916  0.1432E+01  0.4318E+02
  30.966  0.1497E+01  0.4325E+02
  31.016  0.1571E+01  0.4333E+02
  31.066  0.1609E+01  0.4341E+02
  31.116  0.1626E+01  0.4349E+02
  31.166  0.1661E+01  0.4357E+02
  31.216  0.1722E+01  0.4366E+02
  31.266  0.1764E+01  0.4375E+02
  31.316  0.1744E+01  0.4384E+02
  31.366  0.1685E+01  0.4392E+02
  31.416  0.1670E+01  0.4400E+02
  31.466  0.1769E+01  0.4409E+02
  31.516  0.1985E+01  0.4419E+02
  31.566  0.2241E+01  0.4430E+02
  31.616  0.2423E+01  0.4442E+02
  31.666  0.2450E+01  0.4455E+02
  31.716  0.2350E+01  0.4466E+02
  31.766  0.2222E+01  0.4478E+02
  31.816  0.2118E+01  0.4488E+02
  31.866  0.2011E+01  0.4498E+02
  31.916  0.1864E+01  0.4508E+02
  31.966  0.1692E+01  0.4516E+02
  32.016  0.1538E+01  0.4524E+02
  32.066  0.1421E+01  0.4531E+02
  32.116  0.1336E+01  0.4537E+02
  32.166  0.1284E+01  0.4544E+02
  32.216  0.1267E+01  0.4550E+02
  32.266  0.1277E+01  0.4557E+02
  32.316  0.1288E+01  0.4563E+02
  32.366  0.1287E+01  0.4570E+02
  32.416  0.1301E+01  0.4576E+02
  32.466  0.1391E+01  0.4583E+02
  32.516  0.1597E+01  0.4591E+02
  32.566  0.1896E+01  0.4600E+02
  32.616  0.2201E+01  0.4611E+02
  32.666  0.2406E+01  0.4623E+02
  32.716  0.2451E+01  0.4636E+02
  32.766  0.2349E+01  0.4647E+02
  32.816  0.2169E+01  0.4658E+02
  32.866  0.1988E+01  0.4668E+02
  32.916  0.1865E+01  0.4678E+02
  32.966  0.1823E+01  0.4687E+02
  33.016  0.1845E+01  0.4696E+02
  33.066  0.1895E+01  0.4705E+02
  33.116  0.1943E+01  0.4715E+02
  33.166  0.1979E+01  0.4725E+02
  33.216  0.2000E+01  0.4735E+02
  33.266  0.1993E+01  0.4745E+02
  33.316  0.1928E+01  0.4755E+02
  33.366  0.1788E+01  0.4764E+02
  33.416  0.1608E+01  0.4772E+02
  33.466  0.1460E+01  0.4779E+02
  33.516  0.1387E+01  0.4786E+02
  33.566  0.1375E+01  0.4793E+02
  33.616  0.1389E+01  0.4800E+02
  33.666  0.1410E+01  0.4807E+02
  33.716  0.1433E+01  0.4814E+02
  33.766  0.1443E+01  0.4821E+02
  33.816  0.1415E+01  0.4828E+02
  33.866  0.1341E+01  0.4835E+02
  33.916  0.1261E+01  0.4841E+02
  33.966  0.1228E+01  0.4847E+02
  34.016  0.1259E+01  0.4854E+02
  34.066  0.1316E+01  0.4860E+02
  34.116  0.1360E+01  0.4867E+02
  34.166  0.1401E+01  0.4874E+02
  34.216  0.1485E+01  0.4881E+02
  34.266  0.1631E+01  0.4890E+02
  34.316  0.1809E+01  0.4899E+02
  34.366  0.1985E+01  0.4909E+02
  34.416  0.2148E+01  0.4919E+02
  34.466  0.2281E+01  0.4931E+02
  34.516  0.2361E+01  0.4942E+02
  34.566  0.2405E+01  0.4955E+02
  34.616  0.2476E+01  0.4967E+02
  34.666  0.2598E+01  0.4980E+02
  34.716  0.2708E+01  0.4993E+02
  34.766  0.2709E+01  0.5007E+02
  34.816  0.2564E+01  0.5020E+02
  34.866  0.2339E+01  0.5031E+02
  34.916  0.2155E+01  0.5042E+02
  34.966  0.2087E+01  0.5053E+02
  35.016  0.2112E+01  0.5063E+02
  35.066  0.2150E+01  0.5074E+02
  35.116  0.2155E+01  0.5085E+02
  35.166  0.2133E+01  0.5095E+02
  35.216  0.2109E+01  0.5106E+02
  35.266  0.2090E+01  0.5116E+02
  35.316  0.2055E+01  0.5127E+02
  35.366  0.1969E+01  0.5137E+02
  35.416  0.1830E+01  0.5146E+02
  35.466  0.1678E+01  0.5154E+02
  35.516  0.1571E+01  0.5162E+02
  35.566  0.1545E+01  0.5170E+02
  35.616  0.1596E+01  0.5178E+02
  35.666  0.1690E+01  0.5186E+02
  35.716  0.1780E+01  0.5195E+02
  35.766  0.1845E+01  0.5204E+02
  35.816  0.1909E+01  0.5214E+02
  35.866  0.2012E+01  0.5224E+02
  35.916  0.2157E+01  0.5235E+02
  35.966  0.2314E+01  0.5246E+02
  36.016  0.2443E+01  0.5258E+02
  36.066  0.2516E+01  0.5271E+02
  36.116  0.2515E+01  0.5284E+02
  36.166  0.2436E+01  0.5296E+02
  36.216  0.2283E+01  0.5307E+02
  36.266  0.2071E+01  0.5318E+02
  36.316  0.1842E+01  0.5327E+02
  36.366  0.1664E+01  0.5335E+02
  36.416  0.1596E+01  0.5343E+02
  36.466  0.1649E+01  0.5351E+02
  36.516  0.1791E+01  0.5360E+02
  36.566  0.1956E+01  0.5370E+02
  36.616  0.2067E+01  0.5380E+02
  36.666  0.2080E+01  0.5391E+02
  36.716  0.2037E+01  0.5401E+02
  36.766  0.2029E+01  0.5411E+02
  36.816  0.2096E+01  0.5422E+02
  36.866  0.2200E+01  0.5433E+02
  36.916  0.2289E+01  0.5444E+02
  36.966  0.2342E+01  0.5456E+02
  37.016  0.2342E+01  0.5467E+02
  37.066  0.2260E+01  0.5479E+02
  37.116  0.2093E+01  0.5489E+02
  37.166  0.1883E+01  0.5499E+02
  37.216  0.1695E+01  0.5507E+02
  37.266  0.1586E+01  0.5515E+02
  37.316  0.1580E+01  0.5523E+02
  37.366  0.1662E+01  0.5531E+02
  37.416  0.1792E+01  0.5540E+02
  37.466  0.1937E+01  0.5550E+02
  37.516  0.2100E+01  0.5560E+02
  37.566  0.2290E+01  0.5572E+02
  37.616  0.2482E+01  0.5584E+02
  37.666  0.2611E+01  0.5597E+02
  37.716  0.2620E+01  0.5610E+02
  37.766  0.2504E+01  0.5623E+02
  37.816  0.2309E+01  0.5634E+02
  37.866  0.2100E+01  0.5645E+02
  37.916  0.1934E+01  0.5655E+02
  37.966  0.1833E+01  0.5664E+02
  38.016  0.1779E+01  0.5673E+02
  38.066  0.1733E+01  0.5681E+02
  38.116  0.1684E+01  0.5690E+02
  38.166  0.1659E+01  0.5698E+02
  38.216  0.1680E+01  0.5706E+02
  38.266  0.1722E+01  0.5715E+02
  38.316  0.1735E+01  0.5724E+02
  38.366  0.1695E+01  0.5732E+02
  38.416  0.1627E+01  0.5740E+02
  38.466  0.1594E+01  0.5748E+02
  38.516  0.1663E+01  0.5757E+02
  38.566  0.1870E+01  0.5766E+02
  38.616  0.2170E+01  0.5777E+02
  38.666  0.2447E+01  0.5789E+02
  38.716  0.2584E+01  0.5802E+02
  38.766  0.2551E+01  0.5815E+02
  38.816  0.2408E+01  0.5827E+02
  38.866  0.2242E+01  0.5838E+02
  38.916  0.2115E+01  0.5849E+02
  38.966  0.2031E+01  0.5859E+02
  39.016  0.1947E+01  0.5868E+02
  39.066  0.1838E+01  0.5878E+02
  39.116  0.1738E+01  0.5886E+02
  39.166  0.1717E+01  0.5895E+02
  39.216  0.1808E+01  0.5904E+02
  39.266  0.1970E+01  0.5914E+02
  39.316  0.2118E+01  0.5924E+02
  39.366  0.2183E+01  0.5935E+02
  39.416  0.2153E+01  0.5946E+02
  39.466  0.2067E+01  0.5956E+02
  39.516  0.1979E+01  0.5966E+02
  39.566  0.1916E+01  0.5976E+02
  39.616  0.1874E+01  0.5985E+02
  39.666  0.1833E+01  0.5994E+02
  39.716  0.1782E+01  0.6003E+02
  39.766  0.1720E+01  0.6012E+02
  39.816  0.1647E+01  0.6020E+02
  39.866  0.1576E+01  0.6028E+02
  39.916  0.1547E+01  0.6036E+02
  39.966  0.1609E+01  0.6044E+02
  40.016  0.1767E+01  0.6053E+02
  40.066  0.1960E+01  0.6062E+02
  40.116  0.2086E+01  0.6073E+02
  40.166  0.2066E+01  0.6083E+02
  40.216  0.1914E+01  0.6093E+02
  40.266  0.1722E+01  0.6101E+02
  40.316  0.1577E+01  0.6109E+02
  40.366  0.1495E+01  0.6117E+02
  40.416  0.1442E+01  0.6124E+02
  40.466  0.1392E+01  0.6131E+02
  40.516  0.1350E+01  0.6138E+02
  40.566  0.1344E+01  0.6144E+02
  40.616  0.1401E+01  0.6151E+02
  40.666  0.1521E+01  0.6159E+02
  40.716  0.1650E+01  0.6167E+02
  40.766  0.1718E+01  0.6176E+02
  40.816  0.1683E+01  0.6184E+02
  40.866  0.1568E+01  0.6192E+02
  40.916  0.1427E+01  0.6199E+02
  40.966  0.1311E+01  0.6206E+02
  41.016  0.1248E+01  0.6212E+02
  41.066  0.1250E+01  0.6218E+02
  41.116  0.1323E+01  0.6225E+02
  41.166  0.1463E+01  0.6232E+02
  41.216  0.1632E+01  0.6240E+02
  41.266  0.1759E+01  0.6249E+02
  41.316  0.1772E+01  0.6258E+02
  41.366  0.1669E+01  0.6266E+02
  41.416  0.1532E+01  0.6274E+02
  41.466  0.1466E+01  0.6281E+02
  41.516  0.1507E+01  0.6289E+02
  41.566  0.1610E+01  0.6297E+02
  41.616  0.1706E+01  0.6305E+02
  41.666  0.1762E+01  0.6314E+02
  41.716  0.1772E+01  0.6323E+02
  41.766  0.1733E+01  0.6332E+02
  41.816  0.1637E+01  0.6340E+02
  41.866  0.1503E+01  0.6348E+02
  41.916  0.1375E+01  0.6354E+02
  41.966  0.1302E+01  0.6361E+02
  42.016  0.1309E+01  0.6367E+02
  42.066  0.1397E+01  0.6374E+02
  42.116  0.1554E+01  0.6382E+02
  42.166  0.1756E+01  0.6391E+02
  42.216  0.1967E+01  0.6401E+02
  42.266  0.2146E+01  0.6412E+02
  42.316  0.2268E+01  0.6423E+02
  42.366  0.2337E+01  0.6435E+02
  42.416  0.2355E+01  0.6446E+02
  42.466  0.2312E+01  0.6458E+02
  42.516  0.2206E+01  0.6469E+02
  42.566  0.2054E+01  0.6479E+02
  42.616  0.1897E+01  0.6489E+02
  42.666  0.1793E+01  0.6498E+02
  42.716  0.1779E+01  0.6507E+02
  42.766  0.1825E+01  0.6516E+02
  42.816  0.1863E+01  0.6525E+02
  42.866  0.1842E+01  0.6534E+02
  42.916  0.1774E+01  0.6543E+02
  42.966  0.1703E+01  0.6552E+02
  43.016  0.1665E+01  0.6560E+02
  43.066  0.1657E+01  0.6568E+02
  43.116  0.1659E+01  0.6576E+02
  43.166  0.1668E+01  0.6585E+02
  43.216  0.1701E+01  0.6593E+02
  43.266  0.1752E+01  0.6602E+02
  43.316  0.1775E+01  0.6611E+02
  43.366  0.1732E+01  0.6620E+02
  43.416  0.1637E+01  0.6628E+02
  43.466  0.1550E+01  0.6636E+02
  43.516  0.1529E+01  0.6643E+02
  43.566  0.1595E+01  0.6651E+02
  43.616  0.1737E+01  0.6660E+02
  43.666  0.1932E+01  0.6670E+02
  43.716  0.2144E+01  0.6680E+02
  43.766  0.2324E+01  0.6692E+02
  43.816  0.2432E+01  0.6704E+02
  43.866  0.2466E+01  0.6716E+02
  43.916  0.2447E+01  0.6729E+02
  43.966  0.2399E+01  0.6741E+02
  44.016  0.2337E+01  0.6752E+02
  44.066  0.2268E+01  0.6764E+02
  44.116  0.2206E+01  0.6775E+02
  44.166  0.2171E+01  0.6785E+02
  44.216  0.2180E+01  0.6796E+02
  44.266  0.2221E+01  0.6808E+02
  44.316  0.2259E+01  0.6819E+02
  44.366  0.2253E+01  0.6830E+02
  44.416  0.2190E+01  0.6841E+02
  44.466  0.2098E+01  0.6852E+02
  44.516  0.2042E+01  0.6862E+02
  44.566  0.2076E+01  0.6872E+02
  44.616  0.2204E+01  0.6883E+02
  44.666  0.2379E+01  0.6895E+02
  44.716  0.2515E+01  0.6908E+02
  44.766  0.2537E+01  0.6920E+02
  44.816  0.2442E+01  0.6932E+02
  44.866  0.2305E+01  0.6944E+02
  44.916  0.2208E+01  0.6955E+02
  44.966  0.2172E+01  0.6966E+02
  45.016  0.2160E+01  0.6977E+02
  45.066  0.2144E+01  0.6987E+02
  45.116  0.2141E+01  0.6998E+02
  45.166  0.2182E+01  0.7009E+02
  45.216  0.2254E+01  0.7020E+02
  45.266  0.2312E+01  0.7032E+02
  45.316  0.2340E+01  0.7044E+02
  45.366  0.2371E+01  0.7055E+02
  45.416  0.2430E+01  0.7068E+02
  45.466  0.2486E+01  0.7080E+02
  45.516  0.2484E+01  0.7092E+02
  45.566  0.2414E+01  0.7104E+02
  45.616  0.2329E+01  0.7116E+02
  45.666  0.2307E+01  0.7128E+02
  45.716  0.2379E+01  0.7140E+02
  45.766  0.2509E+01  0.7152E+02
  45.816  0.2623E+01  0.7165E+02
  45.866  0.2663E+01  0.7179E+02
  45.916  0.2610E+01  0.7192E+02
  45.966  0.2477E+01  0.7204E+02
  46.016  0.2294E+01  0.7215E+02
  46.066  0.2094E+01  0.7226E+02
  46.116  0.1895E+01  0.7235E+02
  46.166  0.1703E+01  0.7244E+02
  46.216  0.1516E+01  0.7251E+02
  46.266  0.1342E+01  0.7258E+02
  46.316  0.1193E+01  0.7264E+02
  46.366  0.1090E+01  0.7270E+02
  46.416  0.1047E+01  0.7275E+02
  46.466  0.1053E+01  0.7280E+02
  46.516  0.1085E+01  0.7286E+02
  46.566  0.1130E+01  0.7291E+02
  46.616  0.1191E+01  0.7297E+02
  46.666  0.1260E+01  0.7303E+02
  46.716  0.1306E+01  0.7310E+02
  46.766  0.1307E+01  0.7317E+02
  46.816  0.1290E+01  0.7323E+02
  46.866  0.1309E+01  0.7330E+02
  46.916  0.1387E+01  0.7336E+02
  46.966  0.1502E+01  0.7344E+02
  47.016  0.1627E+01  0.7352E+02
  47.066  0.1767E+01  0.7361E+02
  47.116  0.1938E+01  0.7371E+02
  47.166  0.2119E+01  0.7381E+02
  47.216  0.2234E+01  0.7392E+02
  47.266  0.2219E+01  0.7403E+02
  47.316  0.2100E+01  0.7414E+02
  47.366  0.1989E+01  0.7424E+02
  47.416  0.1992E+01  0.7434E+02
  47.466  0.2126E+01  0.7445E+02
  47.516  0.2338E+01  0.7456E+02
  47.566  0.2559E+01  0.7469E+02
  47.616  0.2735E+01  0.7483E+02
  47.666  0.2829E+01  0.7497E+02
  47.716  0.2821E+01  0.7511E+02
  47.766  0.2726E+01  0.7525E+02
  47.816  0.2605E+01  0.7538E+02
  47.866  0.2534E+01  0.7550E+02
  47.916  0.2562E+01  0.7563E+02
  47.966  0.2670E+01  0.7576E+02
  48.016  0.2778E+01  0.7590E+02
  48.066  0.2805E+01  0.7604E+02
  48.116  0.2741E+01  0.7618E+02
  48.166  0.2641E+01  0.7631E+02
  48.216  0.2559E+01  0.7644E+02
  48.266  0.2503E+01  0.7657E+02
  48.316  0.2446E+01  0.7669E+02
  48.366  0.2352E+01  0.7681E+02
  48.416  0.2210E+01  0.7692E+02
  48.466  0.2059E+01  0.7702E+02
  48.516  0.1956E+01  0.7712E+02
  48.566  0.1917E+01  0.7721E+02
  48.616  0.1919E+01  0.7731E+02
  48.666  0.1925E+01  0.7740E+02
  48.716  0.1922E+01  0.7750E+02
  48.766  0.1914E+01  0.7760E+02
  48.816  0.1900E+01  0.7769E+02
  48.866  0.1865E+01  0.7778E+02
  48.916  0.1808E+01  0.7788E+02
  48.966  0.1757E+01  0.7796E+02
  49.016  0.1753E+01  0.7805E+02
  49.066  0.1809E+01  0.7814E+02
  49.116  0.1900E+01  0.7824E+02
  49.166  0.1992E+01  0.7834E+02
  49.216  0.2060E+01  0.7844E+02
  49.266  0.2082E+01  0.7854E+02
  49.316  0.2039E+01  0.7864E+02
  49.366  0.1928E+01  0.7874E+02
  49.416  0.1789E+01  0.7883E+02
  49.466  0.1659E+01  0.7891E+02
  49.516  0.1534E+01  0.7899E+02
  49.566  0.1389E+01  0.7906E+02
  49.616  0.1231E+01  0.7912E+02
  49.666  0.1091E+01  0.7918E+02
  49.716  0.9886E+00  0.7923E+02
  49.766  0.9377E+00  0.7927E+02
  49.816  0.9602E+00  0.7932E+02
  49.866  0.1060E+01  0.7937E+02
  49.916  0.1185E+01  0.7943E+02
  49.966  0.1251E+01  0.7949E+02
  50.016  0.1217E+01  0.7956E+02
  50.066  0.1112E+01  0.7961E+02
  50.116  0.9952E+00  0.7966E+02
  50.166  0.9071E+00  0.7971E+02
  50.216  0.8500E+00  0.7975E+02
  50.266  0.8042E+00  0.7979E+02
  50.316  0.7468E+00  0.7983E+02
  50.366  0.6645E+00  0.7986E+02
  50.416  0.5582E+00  0.7989E+02
  50.466  0.4406E+00  0.7991E+02
  50.516  0.3294E+00  0.7993E+02
  50.566  0.2398E+00  0.7994E+02
  50.616  0.1789E+00  0.7995E+02
  50.666  0.1428E+00  0.7995E+02
  50.716  0.1211E+00  0.7996E+02
  50.766  0.1051E+00  0.7997E+02
  50.816  0.9292E-01  0.7997E+02
  50.866  0.8617E-01  0.7997E+02
  50.916  0.8477E-01  0.7998E+02
  50.966  0.8563E-01  0.7998E+02
  51.016  0.8392E-01  0.7999E+02
  51.066  0.7556E-01  0.7999E+02
  51.116  0.6028E-01  0.7999E+02
  51.166  0.4273E-01  0.8000E+02
  51.216  0.2869E-01  0.8000E+02
  51.266  0.1984E-01  0.8000E+02
  51.316  0.1392E-01  0.8000E+02
  51.366  0.8849E-02  0.8000E+02
  51.416  0.4631E-02  0.8000E+02
  51.466  0.1903E-02  0.8000E+02
  51.516  0.6028E-03  0.8000E+02
  51.566  0.1462E-03  0.8000E+02
  51.616  0.2712E-04  0.8000E+02
  51.666  0.3839E-05  0.8000E+02
